Rate (cps): 1.7348756203926305
Error: 0.0980609678357504
1.079536
0.156528
0.684452
0.81936
0.82558
2.890748
0.86264
0.115204
0.254584
0.862568
0.624832
0.344632
0.341348
0.123944
0.012468
0.11618
0.552088
0.828132
1.171084
0.4818
0.228004
1.626048
0.206888
1.565352
0.116488
0.045524
0.35244
0.266844
0.564024
0.3856
0.03232
0.192684
0.467616
0.285644
0.117416
0.907704
0.165476
0.369352
3.077796
0.899144
0.236436
0.616392
0.255796
1.4085
0.85924
0.18906
1.086284
0.413816
0.092792
0.151584
0.22374
0.382324
0.106608
0.231536
0.039888
0.174692
0.423064
0.527132
0.440408
1.610872
0.336472
0.742504
0.400884
0.35292
0.005788
0.761832
0.782892
0.828284
0.39688
1.229108
0.774712
0.503244
0.378472
0.946292
0.413184
0.4961
0.827104
0.459048
2.169476
0.115604
0.206892
0.803064
0.79544
0.506268
0.262888
0.28172
0.153176
0.076568
0.049372
0.115076
0.47844
0.68096
0.275916
0.630352
0.298708
0.21782
0.21914
1.090968
0.010744
0.581524
0.18594
0.105432
1.7373
1.226364
0.308252
0.236924
0.610828
0.082008
0.349656
0.002344
0.489668
0.316548
0.0318
0.356932
0.394564
1.036032
1.496788
0.03572
1.26662
1.801012
0.34392
0.108744
0.71794
0.0148
0.04522
0.349388
0.421908
0.711628
1.630208
0.63948
0.364676
0.442272
2.248128
0.08986
0.068352
0.388716
0.156984
0.98786
0.165196
0.181624
0.172704
1.442452
1.202104
2.309856
0.606032
0.037584
1.5173
0.069508
0.824484
0.354444
1.327192
0.181244
0.337568
1.115984
0.03246
0.094964
0.077896
1.141644
0.1126
0.230908
0.487084
0.20442
0.948776
0.74004
2.019616
0.359876
0.2277
0.774236
0.11904
0.600944
0.51964
1.102416
0.482124
0.44382
0.002948
0.271656
1.655104
0.440724
0.053744
0.337236
0.668684
0.55676
0.379192
0.344636
0.593776
0.644928
1.358984
0.671572
0.572216
0.230236
0.400516
1.297044
0.153196
1.380928
1.241148
0.207948
0.509272
0.247504
0.512696
0.520092
1.802472
0.34202
1.010684
0.566288
0.190936
0.018904
1.250968
1.153844
0.493684
0.300948
0.213576
0.314356
0.140176
0.773564
0.295888
0.620032
0.253824
0.011216
0.821856
0.858656
1.360228
1.469136
0.373504
0.05258
0.480212
0.333036
0.624804
0.84202
0.35412
0.278208
0.0688
0.12008
0.246112
0.337792
0.115768
0.972936
1.008704
0.045288
0.366328
0.707144
0.63078
0.702824
0.168824
0.168188
2.860928
0.507028
0.193812
1.082412
0.97278
0.408144
0.447204
0.356184
0.045772
0.3605
0.118376
1.536092
0.461784
1.43134
0.60046
0.293252
0.07428
0.20086
1.027776
0.921572
0.032776
0.248908
0.476676
0.3584
0.23022
1.526448
0.887392
0.970772
0.644204
0.005508
0.07372
0.236356
0.504204
0.4339
0.136712
0.4336
0.665768
0.164156
0.47176
0.355464
0.289416
0.126272
0.350432
0.134396
0.165068
1.634144
0.585716
0.927732
0.375708
0.598776
0.028468
2.114096
0.059936
0.433616
0.21936
1.885388
0.699124
0.732876
0.115056
0.195196
1.071808
1.67812
0.144884
1.80364
0.109404
0.15944
0.340724
0.743552
1.910128
