Rate (cps): 1.612021465611361
Error: 0.09449837187622359
0.230056
1.844192
0.075248
0.086872
0.264204
0.650592
0.44774
0.628276
0.516264
0.285948
0.007192
0.759964
0.261864
0.651708
0.003536
0.67158
0.567748
0.582428
0.880344
0.53348
0.981216
1.431876
1.666252
0.338644
1.169428
0.197988
0.277972
0.036968
0.167392
0.3248
0.388392
1.135184
0.591276
0.209732
1.245708
2.398824
3.148232
0.033064
0.380464
2.522184
0.501828
0.940264
0.131272
1.367628
0.083032
0.306424
0.2571
0.014012
0.117972
0.335732
0.101012
0.552204
0.524824
1.4623
0.090828
0.540604
0.141884
0.904708
0.041652
0.188172
0.252568
0.150544
0.01416
0.852808
2.321864
0.749144
0.123932
0.820844
0.360184
1.109432
0.37828
2.264396
0.35698
0.21058
0.145328
2.044444
0.054316
1.482536
0.500468
1.5289
0.381436
0.736044
2.151772
0.59448
0.515788
0.34782
0.366396
0.060068
0.585348
0.169264
0.26722
0.282976
1.00242
0.46732
0.251744
0.167936
0.796236
0.675272
0.091288
0.1784
0.360676
0.256988
0.071672
0.36872
0.551604
0.784512
1.071372
0.22848
3.315768
0.155872
0.34338
0.101616
0.354724
0.724364
0.865668
0.09118
0.25396
0.083796
0.158132
0.057604
0.891288
0.603492
0.238652
0.28116
0.14594
0.503044
0.42504
0.624876
0.417852
0.449596
0.2643
1.2813
1.294232
0.32336
0.256472
1.437464
1.12856
0.078724
0.50538
2.993128
0.721992
0.271868
0.79106
0.714072
0.073408
0.319776
0.182932
0.123588
0.4329
0.015844
0.880936
0.78634
0.557616
0.11548
0.09558
0.197252
0.1759
0.503428
1.518948
1.10016
1.681728
1.498396
0.3464
1.54464
0.096024
0.221056
0.37026
1.442368
0.920388
0.144616
0.170368
0.028404
0.690712
0.139392
1.211504
0.38934
1.205424
1.090712
0.503056
0.515524
1.504604
0.17808
1.594644
0.2252
1.57978
0.332216
0.15986
0.38852
0.0481
1.007028
0.180572
0.398456
1.200364
0.422948
0.82266
0.155564
0.053708
0.722576
0.212608
1.318
1.073436
0.33988
0.254924
0.682556
1.058336
0.163296
0.77796
1.207932
0.386244
1.166584
1.570652
0.828428
0.168816
0.031088
0.21482
0.031676
1.364616
0.082336
0.16358
0.167776
2.02784
0.731376
2.635552
0.355436
0.141484
2.439492
0.100332
0.389384
0.007316
0.881068
0.45004
1.118216
0.722868
0.402052
0.150548
0.180372
0.03164
0.756536
0.375232
0.210476
0.459868
1.092012
0.168532
0.988064
1.250128
0.151516
0.54358
0.50354
0.490208
1.286692
0.191716
0.872216
0.977172
0.25538
0.741608
0.119524
0.071636
0.324504
0.235804
1.094004
0.68476
0.03922
0.55216
0.877412
0.071332
0.411228
0.134088
0.054756
0.346908
0.008544
0.008776
0.10314
0.09146
0.747304
1.230364
0.383616
0.186828
0.264464
0.139016
0.762552
0.793764
1.005028
2.730436
0.116936
1.27092
0.676764
0.438456
0.885908
1.32994
2.210356
0.654304
