Rate (cps): 1.3895469091660382
Error: 0.08770742319074548
0.385972
1.154792
0.00212
0.001584
2.065372
2.183112
0.652328
0.831416
0.694096
0.769408
0.099304
1.6312
0.004892
0.034172
0.034052
0.298468
0.002296
0.319976
0.384416
0.009428
1.252324
0.0088
1.919492
0.002248
0.004292
0.672636
0.186032
0.169636
0.005548
0.42002
0.415108
0.448976
2.026552
0.740284
0.41992
0.846832
0.080172
1.16972
1.163384
0.05398
2.224208
0.230664
0.001636
1.23936
0.557212
0.959032
0.951668
0.391888
0.66248
0.045072
0.309508
1.430792
1.641604
0.429028
1.214812
0.808584
0.39054
0.188648
0.588164
2.052048
0.002428
0.002568
0.00168
3.3407
0.120392
0.001856
0.001644
1.214808
1.224828
0.003872
0.001824
1.350236
0.212368
0.890368
0.002692
0.427488
2.12782
0.0289
0.001932
1.56738
0.002672
0.003228
0.007748
0.001948
0.72262
0.136124
0.774064
0.205008
1.448664
1.134412
0.11696
0.546848
0.585036
0.636772
0.277816
0.650196
0.16244
0.333752
0.11398
0.323132
1.59056
0.003344
0.341888
0.55374
0.370508
0.927044
0.131544
0.949684
0.35532
1.32266
0.135364
0.8209
0.30484
0.421592
0.993512
1.65942
0.979348
0.743312
0.135836
0.256856
0.057964
2.881928
1.43952
0.002128
0.002296
0.6122
1.23022
0.097136
0.001964
0.002468
0.002316
0.359204
0.508332
1.202204
0.073116
1.379036
0.454504
1.734548
0.098788
0.600512
0.478676
0.257084
2.671256
3.805836
1.08798
0.874424
0.184164
0.600864
0.611992
0.175656
0.62506
0.212952
0.2563
0.300996
0.760264
0.391636
0.5396
0.410948
1.6128
0.004784
1.173924
0.465584
0.579364
0.410964
0.431448
0.122268
1.579412
2.012044
2.522976
0.265076
0.760044
0.036224
0.049992
3.750644
1.076084
0.121944
0.48132
3.38562
1.228984
1.094876
1.076584
0.835848
0.417808
2.338812
1.538384
0.149012
0.271292
0.316276
0.743232
0.005828
2.807668
0.00386
0.008892
0.098448
2.323836
0.649724
0.421988
0.00318
0.004076
0.457856
0.10206
1.868564
3.191552
0.010796
0.206368
0.793588
0.033704
0.554952
0.960444
0.603448
0.584364
0.07284
0.15566
0.578096
0.336032
1.303992
0.290676
1.547152
0.285832
1.002332
0.649116
0.976216
0.26598
0.99618
0.340932
0.600148
0.584908
1.096012
0.070148
0.00206
2.575276
3.167632
2.207396
1.326572
0.74058
2.206732
1.704852
2.74002
0.111092
0.972128
0.002688
0.001944
0.694496
0.827304
0.398592
0.274528
0.101252
0.0466
0.875504
0.047852
1.334392
