Rate (cps): 1.500821023726438
Error: 0.1115551481500541
1.21316
1.659476
0.3319
0.316476
0.4121
1.792484
0.220268
0.70498
0.575516
0.853664
0.2732
0.014568
0.140948
0.110048
0.96818
0.383884
0.95182
0.01416
0.01062
0.004752
1.346872
0.463048
2.51302
0.013088
2.898424
1.699756
1.061884
1.332436
0.351016
0.230864
1.327824
0.635124
0.141804
0.662264
0.78932
0.127016
2.469968
0.155876
0.133204
0.585164
0.153632
0.453616
1.06976
0.197276
0.330816
0.07286
0.622376
0.0554
0.203904
0.603808
0.36734
0.668056
0.466764
0.416456
0.985848
0.243088
0.122464
0.359024
0.05482
0.331548
0.124048
0.481468
0.640364
0.042944
0.066532
1.171864
0.296516
1.921208
0.712252
1.199304
1.053244
2.718184
0.107732
0.269928
1.330884
0.46414
1.340908
0.096256
1.248032
0.144508
1.451188
0.801804
0.359392
0.386368
0.94726
1.284284
0.223748
0.741188
0.082672
0.339932
1.198908
0.578172
0.613148
0.7905
0.03374
0.32854
0.603292
1.092328
0.051968
1.967072
0.754976
0.658616
0.420828
0.614556
0.636768
0.26154
0.661228
1.357024
2.868192
0.007496
1.212704
1.27746
0.604452
0.727616
0.954492
0.790996
0.060548
1.732132
0.00332
0.035104
0.393976
0.608128
1.451928
0.712984
0.163992
0.281688
0.142316
0.12186
0.118372
0.274492
0.984668
1.759504
0.149624
0.654732
0.317808
1.697784
0.552512
0.145028
0.72144
0.125472
1.509848
0.079496
0.032872
0.014524
0.499964
0.508092
0.013448
0.95286
1.042984
0.0154
0.26306
0.116592
0.77794
0.210272
1.008592
0.5173
0.255288
0.21624
0.806872
0.030888
0.235044
0.95862
0.740516
0.517952
0.102704
0.206304
0.833352
1.377392
1.575272
0.30564
0.788736
1.125852
2.475896
0.9935
0.197528
1.366672
0.061356
1.416428
0.217384
0.829944
1.408824
